Frame number,Mean intensity,,Coordinate(pixel),303,578
0,189.76
1,173.46
2,155.57
3,153.19
4,149.78
5,153.21
6,146.5
7,149.54
8,145.39
9,153.94
10,167.97
11,208.68
12,219.62
13,213.91
14,216.69
15,210.92
16,202.95
17,183.45
18,204.97
19,180.93
20,180.42
21,166.29
22,161.33
23,154.75
24,155.19
