Frame number,Mean intensity,,Coordinate(pixel),455,668
0,174.54
1,154.33
2,146.22
3,142.51
4,136.8
5,140.99
6,141.92
7,140.74
8,139.46
9,136.17
10,140.12
11,179.24
12,214.0
13,194.89
14,203.12
15,196.96
16,173.59
17,157.98
18,163.27
19,153.16
20,152.83
21,148.64
22,143.57
23,142.96
24,136.53
