Frame number,Mean intensity,,Coordinate(pixel),483,213
0,184.45
1,186.99
2,181.43
3,185.9
4,186.38
5,179.67
6,178.79
7,182.48
8,179.24
9,178.08
10,182.57
11,187.03
12,193.24
13,190.14
14,195.84
15,202.44
16,204.81
17,195.82
18,192.5
19,192.94
20,186.1
21,182.94
22,183.18
23,180.85
24,177.79
