Frame number,Mean intensity,,Coordinate(pixel),476,226
0,193.3
1,198.38
2,200.94
3,196.12
4,206.01
5,194.42
6,194.16
7,191.17
8,198.11
9,191.69
10,203.19
11,194.35
12,204.63
13,200.76
14,216.45
15,219.69
16,220.93
17,207.98
18,206.62
19,208.05
20,194.76
21,198.19
22,194.4
23,195.57
24,195.53
