Frame number,Mean intensity,,Coordinate(pixel),463,231
0,181.56
1,182.68
2,186.55
3,184.58
4,195.26
5,183.37
6,193.63
7,180.95
8,199.08
9,186.26
10,199.76
11,177.96
12,199.39
13,191.21
14,215.67
15,213.84
16,219.6
17,211.3
18,197.72
19,198.66
20,187.82
21,194.64
22,180.79
23,195.67
24,186.26
