Frame number,Mean intensity,,Coordinate(pixel),676,625
0,172.94
1,167.26
2,159.7
3,151.07
4,160.77
5,153.13
6,157.61
7,147.79
8,158.22
9,149.24
10,155.05
11,150.54
12,159.57
13,160.27
14,186.28
15,200.6
16,198.15
17,192.59
18,173.79
19,165.37
20,155.62
21,153.21
22,154.64
23,150.08
24,151.33
