Frame number,Mean intensity,,Coordinate(pixel),476,688
0,171.65
1,157.43
2,146.59
3,146.34
4,140.72
5,141.66
6,137.88
7,140.03
8,136.81
9,136.38
10,140.11
11,177.77
12,189.69
13,187.82
14,195.85
15,197.77
16,173.29
17,163.2
18,154.69
19,147.1
20,146.32
21,148.04
22,143.61
23,143.8
24,137.63
