Frame number,Mean intensity,,Coordinate(pixel),295,428
0,168.51
1,152.3
2,145.08
3,142.26
4,138.44
5,141.34
6,133.29
7,136.35
8,138.1
9,137.58
10,141.09
11,172.46
12,190.58
13,193.49
14,196.03
15,171.85
16,170.32
17,172.48
18,199.22
19,164.97
20,153.3
21,143.15
22,138.83
23,137.36
24,137.64
