Frame number,Mean intensity,,Coordinate(pixel),413,533
0,169.66
1,157.95
2,158.18
3,152.12
4,144.63
5,143.21
6,147.67
7,146.16
8,152.28
9,151.71
10,152.52
11,176.58
12,194.82
13,199.01
14,207.65
15,189.04
16,178.22
17,170.26
18,172.83
19,162.69
20,154.27
21,147.5
22,145.7
23,161.6
24,149.33
