Frame number,Mean intensity,,Coordinate(pixel),913,499
0,146.28
1,147.7
2,139.39
3,146.35
4,136.24
5,145.46
6,137.66
7,143.86
8,130.26
9,144.61
10,140.53
11,145.08
12,149.16
13,148.34
14,154.71
15,174.04
16,209.0
17,182.34
18,174.33
19,150.92
20,153.9
21,150.09
22,149.4
23,150.63
24,146.43
