Frame number,Mean intensity,,Coordinate(pixel),839,685
0,127.94
1,124.03
2,119.99
3,124.07
4,117.39
5,124.94
6,114.99
7,121.55
8,114.88
9,121.94
10,114.05
11,122.35
12,118.3
13,125.47
14,122.84
15,133.25
16,176.27
17,175.91
18,144.91
19,122.48
20,125.17
21,123.39
22,121.45
23,121.59
24,121.15
