Frame number,Mean intensity,,Coordinate(pixel),388,557
0,169.61
1,156.02
2,151.22
3,146.03
4,149.17
5,145.43
6,146.37
7,143.42
8,146.13
9,150.42
10,156.3
11,181.49
12,190.28
13,189.42
14,189.72
15,193.87
16,172.46
17,167.64
18,171.76
19,165.68
20,158.46
21,154.76
22,147.77
23,151.8
24,147.02
