Frame number,Mean intensity,,Coordinate(pixel),535,571
0,183.06
1,160.03
2,147.65
3,148.34
4,147.57
5,139.97
6,141.61
7,139.96
8,140.18
9,140.51
10,143.72
11,160.97
12,186.5
13,181.92
14,209.45
15,201.76
16,191.06
17,178.98
18,164.57
19,155.42
20,147.04
21,148.7
22,138.9
23,143.55
24,143.52
