Frame number,Mean intensity,,Coordinate(pixel),705,596
0,181.31
1,173.83
2,157.26
3,160.22
4,153.91
5,163.89
6,155.81
7,154.85
8,156.67
9,158.47
10,159.98
11,159.72
12,159.3
13,168.71
14,188.2
15,212.38
16,209.05
17,196.87
18,179.15
19,169.34
20,160.98
21,158.04
22,159.13
23,154.52
24,157.51
