Frame number,Mean intensity,,Coordinate(pixel),233,458
0,183.35
1,173.19
2,156.66
3,155.87
4,138.83
5,140.09
6,131.58
7,132.91
8,123.93
9,134.81
10,141.8
11,168.53
12,180.83
13,189.63
14,194.01
15,190.45
16,194.75
17,189.77
18,205.12
19,179.17
20,167.17
21,146.49
22,138.47
23,134.81
24,133.88
